flow [gpm]	head [ft]	speed [Hz]
0.000	320.000	76.500
0.505	320.000	76.500
1.010	320.000	76.500
1.515	320.000	76.500
2.020	320.000	76.500
2.525	320.000	76.500
3.030	319.999	76.500
3.535	319.999	76.500
4.040	319.998	76.500
4.545	319.997	76.500
5.051	319.995	76.500
5.556	319.992	76.500
6.061	319.988	76.500
6.566	319.984	76.500
7.071	319.978	76.500
7.576	319.970	76.500
8.081	319.960	76.500
8.586	319.948	76.500
9.091	319.934	76.500
9.596	319.917	76.500
10.101	319.897	76.500
10.606	319.873	76.500
11.111	319.845	76.500
11.616	319.812	76.500
12.121	319.775	76.500
12.626	319.732	76.500
13.131	319.683	76.500
13.636	319.627	76.500
14.141	319.564	76.500
14.646	319.494	76.500
15.152	319.415	76.500
15.657	319.327	76.500
16.162	319.229	76.500
16.667	319.120	76.500
17.172	319.000	76.500
17.677	318.868	76.500
18.182	318.723	76.500
18.687	318.565	76.500
19.192	318.391	76.500
19.697	318.202	76.500
20.202	317.996	76.500
20.707	317.773	76.500
21.212	317.531	76.500
21.717	317.270	76.500
22.222	316.988	76.500
22.727	316.684	76.500
23.232	316.357	76.500
23.737	316.006	76.500
24.242	315.629	76.500
24.747	315.226	76.500
25.253	314.795	76.500
25.758	314.335	76.500
26.263	313.844	76.500
26.768	313.322	76.500
27.273	312.766	76.500
27.778	312.175	76.500
28.283	311.548	76.500
28.788	310.883	76.500
29.293	310.179	76.500
29.798	309.434	76.500
30.303	308.646	76.500
30.808	307.814	76.500
31.313	306.937	76.500
31.818	306.011	76.500
32.323	305.036	76.500
32.828	304.010	76.500
33.333	302.931	76.500
33.838	301.797	76.500
34.343	300.606	76.500
34.848	299.356	76.500
35.354	298.045	76.500
35.859	296.671	76.500
36.364	295.233	76.500
36.869	293.728	76.500
37.374	292.153	76.500
37.879	290.507	76.500
38.384	288.788	76.500
38.889	286.993	76.500
39.394	285.119	76.500
39.899	283.166	76.500
40.404	281.129	76.500
40.909	279.008	76.500
41.414	276.798	76.500
41.919	274.499	76.500
42.424	272.107	76.500
42.929	269.620	76.500
43.434	267.035	76.500
43.939	264.350	76.500
44.444	261.561	76.500
44.949	258.667	76.500
45.455	255.664	76.500
45.960	252.550	76.500
46.465	249.321	76.500
46.970	245.976	76.500
47.475	242.510	76.500
47.980	238.922	76.500
48.485	235.207	76.500
48.990	231.363	76.500
49.495	227.388	76.500
50.000	223.277	76.500
0.000	307.574	75.000
0.495	307.574	75.000
0.990	307.574	75.000
1.485	307.574	75.000
1.981	307.574	75.000
2.476	307.574	75.000
2.971	307.573	75.000
3.466	307.573	75.000
3.961	307.572	75.000
4.456	307.571	75.000
4.951	307.569	75.000
5.447	307.566	75.000
5.942	307.563	75.000
6.437	307.558	75.000
6.932	307.552	75.000
7.427	307.545	75.000
7.922	307.536	75.000
8.418	307.524	75.000
8.913	307.511	75.000
9.408	307.494	75.000
9.903	307.475	75.000
10.398	307.452	75.000
10.893	307.425	75.000
11.388	307.394	75.000
11.884	307.357	75.000
12.379	307.316	75.000
12.874	307.269	75.000
13.369	307.216	75.000
13.864	307.155	75.000
14.359	307.087	75.000
14.854	307.012	75.000
15.350	306.927	75.000
15.845	306.833	75.000
16.340	306.728	75.000
16.835	306.613	75.000
17.330	306.486	75.000
17.825	306.347	75.000
18.320	306.194	75.000
18.816	306.028	75.000
19.311	305.846	75.000
19.806	305.648	75.000
20.301	305.434	75.000
20.796	305.201	75.000
21.291	304.950	75.000
21.786	304.679	75.000
22.282	304.387	75.000
22.777	304.072	75.000
23.272	303.735	75.000
23.767	303.373	75.000
24.262	302.986	75.000
24.757	302.571	75.000
25.253	302.129	75.000
25.748	301.657	75.000
26.243	301.155	75.000
26.738	300.621	75.000
27.233	300.053	75.000
27.728	299.450	75.000
28.223	298.811	75.000
28.719	298.135	75.000
29.214	297.418	75.000
29.709	296.661	75.000
30.204	295.862	75.000
30.699	295.018	75.000
31.194	294.128	75.000
31.689	293.191	75.000
32.185	292.205	75.000
32.680	291.168	75.000
33.175	290.077	75.000
33.670	288.933	75.000
34.165	287.731	75.000
34.660	286.472	75.000
35.155	285.151	75.000
35.651	283.769	75.000
36.146	282.322	75.000
36.641	280.808	75.000
37.136	279.226	75.000
37.631	277.574	75.000
38.126	275.848	75.000
38.622	274.048	75.000
39.117	272.170	75.000
39.612	270.213	75.000
40.107	268.173	75.000
40.602	266.050	75.000
41.097	263.840	75.000
41.592	261.541	75.000
42.088	259.150	75.000
42.583	256.666	75.000
43.078	254.085	75.000
43.573	251.405	75.000
44.068	248.623	75.000
44.563	245.736	75.000
45.058	242.743	75.000
45.554	239.640	75.000
46.049	236.424	75.000
46.544	233.093	75.000
47.039	229.644	75.000
47.534	226.074	75.000
48.029	222.379	75.000
48.524	218.558	75.000
49.020	214.607	75.000
0.000	267.931	70.000
0.462	267.931	70.000
0.924	267.931	70.000
1.386	267.931	70.000
1.849	267.931	70.000
2.311	267.931	70.000
2.773	267.931	70.000
3.235	267.930	70.000
3.697	267.929	70.000
4.159	267.928	70.000
4.621	267.927	70.000
5.084	267.924	70.000
5.546	267.921	70.000
6.008	267.917	70.000
6.470	267.912	70.000
6.932	267.906	70.000
7.394	267.898	70.000
7.856	267.888	70.000
8.318	267.876	70.000
8.781	267.862	70.000
9.243	267.845	70.000
9.705	267.825	70.000
10.167	267.801	70.000
10.629	267.774	70.000
11.091	267.743	70.000
11.553	267.707	70.000
12.016	267.665	70.000
12.478	267.619	70.000
12.940	267.566	70.000
13.402	267.507	70.000
13.864	267.441	70.000
14.326	267.367	70.000
14.788	267.285	70.000
15.251	267.194	70.000
15.713	267.094	70.000
16.175	266.984	70.000
16.637	266.862	70.000
17.099	266.729	70.000
17.561	266.584	70.000
18.023	266.426	70.000
18.486	266.254	70.000
18.948	266.067	70.000
19.410	265.864	70.000
19.872	265.645	70.000
20.334	265.409	70.000
20.796	265.154	70.000
21.258	264.881	70.000
21.720	264.587	70.000
22.183	264.272	70.000
22.645	263.934	70.000
23.107	263.573	70.000
23.569	263.188	70.000
24.031	262.777	70.000
24.493	262.340	70.000
24.955	261.874	70.000
25.418	261.380	70.000
25.880	260.855	70.000
26.342	260.298	70.000
26.804	259.708	70.000
27.266	259.084	70.000
27.728	258.425	70.000
28.190	257.728	70.000
28.653	256.993	70.000
29.115	256.218	70.000
29.577	255.402	70.000
30.039	254.543	70.000
30.501	253.639	70.000
30.963	252.690	70.000
31.425	251.692	70.000
31.888	250.646	70.000
32.350	249.549	70.000
32.812	248.399	70.000
33.274	247.194	70.000
33.736	245.934	70.000
34.198	244.615	70.000
34.660	243.237	70.000
35.122	241.798	70.000
35.585	240.295	70.000
36.047	238.726	70.000
36.509	237.090	70.000
36.971	235.385	70.000
37.433	233.609	70.000
37.895	231.759	70.000
38.357	229.834	70.000
38.820	227.831	70.000
39.282	225.749	70.000
39.744	223.584	70.000
40.206	221.336	70.000
40.668	219.001	70.000
41.130	216.578	70.000
41.592	214.064	70.000
42.055	211.456	70.000
42.517	208.753	70.000
42.979	205.952	70.000
43.441	203.050	70.000
43.903	200.045	70.000
44.365	196.935	70.000
44.827	193.717	70.000
45.289	190.388	70.000
45.752	186.946	70.000
0.000	231.022	65.000
0.429	231.022	65.000
0.858	231.022	65.000
1.287	231.022	65.000
1.717	231.022	65.000
2.146	231.022	65.000
2.575	231.022	65.000
3.004	231.021	65.000
3.433	231.021	65.000
3.862	231.020	65.000
4.291	231.018	65.000
4.720	231.016	65.000
5.150	231.014	65.000
5.579	231.010	65.000
6.008	231.006	65.000
6.437	231.000	65.000
6.866	230.994	65.000
7.295	230.985	65.000
7.724	230.975	65.000
8.153	230.962	65.000
8.583	230.948	65.000
9.012	230.930	65.000
9.441	230.910	65.000
9.870	230.887	65.000
10.299	230.860	65.000
10.728	230.829	65.000
11.157	230.793	65.000
11.586	230.753	65.000
12.016	230.708	65.000
12.445	230.657	65.000
12.874	230.600	65.000
13.303	230.536	65.000
13.732	230.465	65.000
14.161	230.387	65.000
14.590	230.301	65.000
15.019	230.205	65.000
15.449	230.101	65.000
15.878	229.986	65.000
16.307	229.861	65.000
16.736	229.724	65.000
17.165	229.576	65.000
17.594	229.415	65.000
18.023	229.240	65.000
18.452	229.051	65.000
18.882	228.848	65.000
19.311	228.628	65.000
19.740	228.392	65.000
20.169	228.139	65.000
20.598	227.867	65.000
21.027	227.576	65.000
21.456	227.265	65.000
21.886	226.933	65.000
22.315	226.578	65.000
22.744	226.201	65.000
23.173	225.800	65.000
23.602	225.373	65.000
24.031	224.920	65.000
24.460	224.441	65.000
24.889	223.932	65.000
25.319	223.394	65.000
25.748	222.826	65.000
26.177	222.225	65.000
26.606	221.591	65.000
27.035	220.923	65.000
27.464	220.219	65.000
27.893	219.478	65.000
28.322	218.699	65.000
28.752	217.880	65.000
29.181	217.021	65.000
29.610	216.118	65.000
30.039	215.172	65.000
30.468	214.180	65.000
30.897	213.142	65.000
31.326	212.055	65.000
31.755	210.918	65.000
32.185	209.730	65.000
32.614	208.489	65.000
33.043	207.193	65.000
33.472	205.840	65.000
33.901	204.430	65.000
34.330	202.960	65.000
34.759	201.428	65.000
35.188	199.833	65.000
35.618	198.173	65.000
36.047	196.446	65.000
36.476	194.651	65.000
36.905	192.785	65.000
37.334	190.846	65.000
37.763	188.833	65.000
38.192	186.743	65.000
38.622	184.575	65.000
39.051	182.327	65.000
39.480	179.996	65.000
39.909	177.581	65.000
40.338	175.079	65.000
40.767	172.488	65.000
41.196	169.806	65.000
41.625	167.032	65.000
42.055	164.161	65.000
42.484	161.193	65.000
0.000	196.847	60.000
0.396	196.847	60.000
0.792	196.847	60.000
1.188	196.847	60.000
1.584	196.847	60.000
1.981	196.847	60.000
2.377	196.847	60.000
2.773	196.847	60.000
3.169	196.846	60.000
3.565	196.845	60.000
3.961	196.844	60.000
4.357	196.842	60.000
4.753	196.840	60.000
5.150	196.837	60.000
5.546	196.834	60.000
5.942	196.829	60.000
6.338	196.823	60.000
6.734	196.816	60.000
7.130	196.807	60.000
7.526	196.796	60.000
7.922	196.784	60.000
8.318	196.769	60.000
8.715	196.752	60.000
9.111	196.732	60.000
9.507	196.709	60.000
9.903	196.682	60.000
10.299	196.652	60.000
10.695	196.618	60.000
11.091	196.579	60.000
11.487	196.536	60.000
11.884	196.487	60.000
12.280	196.433	60.000
12.676	196.373	60.000
13.072	196.306	60.000
13.468	196.232	60.000
13.864	196.151	60.000
14.260	196.062	60.000
14.656	195.964	60.000
15.052	195.858	60.000
15.449	195.741	60.000
15.845	195.615	60.000
16.241	195.478	60.000
16.637	195.329	60.000
17.033	195.168	60.000
17.429	194.994	60.000
17.825	194.807	60.000
18.221	194.606	60.000
18.618	194.390	60.000
19.014	194.159	60.000
19.410	193.911	60.000
19.806	193.646	60.000
20.202	193.363	60.000
20.598	193.061	60.000
20.994	192.739	60.000
21.390	192.397	60.000
21.786	192.034	60.000
22.183	191.648	60.000
22.579	191.239	60.000
22.975	190.806	60.000
23.371	190.348	60.000
23.767	189.863	60.000
24.163	189.351	60.000
24.559	188.811	60.000
24.955	188.242	60.000
25.352	187.642	60.000
25.748	187.011	60.000
26.144	186.347	60.000
26.540	185.650	60.000
26.936	184.917	60.000
27.332	184.148	60.000
27.728	183.342	60.000
28.124	182.497	60.000
28.520	181.612	60.000
28.917	180.686	60.000
29.313	179.717	60.000
29.709	178.705	60.000
30.105	177.647	60.000
30.501	176.543	60.000
30.897	175.391	60.000
31.293	174.189	60.000
31.689	172.936	60.000
32.086	171.631	60.000
32.482	170.272	60.000
32.878	168.858	60.000
33.274	167.386	60.000
33.670	165.856	60.000
34.066	164.266	60.000
34.462	162.614	60.000
34.858	160.899	60.000
35.255	159.118	60.000
35.651	157.271	60.000
36.047	155.356	60.000
36.443	153.370	60.000
36.839	151.312	60.000
37.235	149.180	60.000
37.631	146.972	60.000
38.027	144.687	60.000
38.423	142.323	60.000
38.820	139.877	60.000
39.216	137.348	60.000
0.000	165.406	55.000
0.363	165.406	55.000
0.726	165.406	55.000
1.089	165.406	55.000
1.452	165.406	55.000
1.816	165.406	55.000
2.179	165.406	55.000
2.542	165.406	55.000
2.905	165.405	55.000
3.268	165.405	55.000
3.631	165.404	55.000
3.994	165.402	55.000
4.357	165.400	55.000
4.720	165.398	55.000
5.084	165.395	55.000
5.447	165.391	55.000
5.810	165.386	55.000
6.173	165.380	55.000
6.536	165.372	55.000
6.899	165.364	55.000
7.262	165.353	55.000
7.625	165.341	55.000
7.988	165.326	55.000
8.351	165.309	55.000
8.715	165.290	55.000
9.078	165.268	55.000
9.441	165.242	55.000
9.804	165.214	55.000
10.167	165.181	55.000
10.530	165.145	55.000
10.893	165.104	55.000
11.256	165.058	55.000
11.619	165.008	55.000
11.983	164.952	55.000
12.346	164.890	55.000
12.709	164.822	55.000
13.072	164.747	55.000
13.435	164.665	55.000
13.798	164.575	55.000
14.161	164.477	55.000
14.524	164.371	55.000
14.887	164.255	55.000
15.251	164.130	55.000
15.614	163.995	55.000
15.977	163.849	55.000
16.340	163.692	55.000
16.703	163.523	55.000
17.066	163.342	55.000
17.429	163.147	55.000
17.792	162.939	55.000
18.155	162.716	55.000
18.519	162.478	55.000
18.882	162.225	55.000
19.245	161.955	55.000
19.608	161.667	55.000
19.971	161.362	55.000
20.334	161.038	55.000
20.697	160.694	55.000
21.060	160.330	55.000
21.423	159.945	55.000
21.786	159.538	55.000
22.150	159.108	55.000
22.513	158.654	55.000
22.876	158.176	55.000
23.239	157.672	55.000
23.602	157.141	55.000
23.965	156.583	55.000
24.328	155.997	55.000
24.691	155.382	55.000
25.054	154.736	55.000
25.418	154.058	55.000
25.781	153.348	55.000
26.144	152.605	55.000
26.507	151.826	55.000
26.870	151.013	55.000
27.233	150.162	55.000
27.596	149.273	55.000
27.959	148.345	55.000
28.322	147.377	55.000
28.686	146.367	55.000
29.049	145.314	55.000
29.412	144.218	55.000
29.775	143.076	55.000
30.138	141.887	55.000
30.501	140.651	55.000
30.864	139.365	55.000
31.227	138.029	55.000
31.590	136.641	55.000
31.954	135.200	55.000
32.317	133.704	55.000
32.680	132.152	55.000
33.043	130.542	55.000
33.406	128.873	55.000
33.769	127.144	55.000
34.132	125.352	55.000
34.495	123.497	55.000
34.858	121.577	55.000
35.221	119.591	55.000
35.585	117.536	55.000
35.948	115.411	55.000
0.000	136.700	50.000
0.330	136.700	50.000
0.660	136.700	50.000
0.990	136.700	50.000
1.320	136.700	50.000
1.650	136.699	50.000
1.981	136.699	50.000
2.311	136.699	50.000
2.641	136.699	50.000
2.971	136.698	50.000
3.301	136.697	50.000
3.631	136.696	50.000
3.961	136.695	50.000
4.291	136.693	50.000
4.621	136.690	50.000
4.951	136.687	50.000
5.282	136.683	50.000
5.612	136.678	50.000
5.942	136.671	50.000
6.272	136.664	50.000
6.602	136.655	50.000
6.932	136.645	50.000
7.262	136.633	50.000
7.592	136.619	50.000
7.922	136.603	50.000
8.252	136.585	50.000
8.583	136.564	50.000
8.913	136.540	50.000
9.243	136.513	50.000
9.573	136.483	50.000
9.903	136.450	50.000
10.233	136.412	50.000
10.563	136.370	50.000
10.893	136.324	50.000
11.223	136.273	50.000
11.553	136.216	50.000
11.884	136.154	50.000
12.214	136.086	50.000
12.544	136.012	50.000
12.874	135.931	50.000
13.204	135.844	50.000
13.534	135.748	50.000
13.864	135.645	50.000
14.194	135.533	50.000
14.524	135.413	50.000
14.854	135.283	50.000
15.185	135.143	50.000
15.515	134.993	50.000
15.845	134.832	50.000
16.175	134.660	50.000
16.505	134.476	50.000
16.835	134.280	50.000
17.165	134.070	50.000
17.495	133.847	50.000
17.825	133.609	50.000
18.155	133.357	50.000
18.486	133.089	50.000
18.816	132.805	50.000
19.146	132.504	50.000
19.476	132.186	50.000
19.806	131.849	50.000
20.136	131.494	50.000
20.466	131.119	50.000
20.796	130.724	50.000
21.126	130.307	50.000
21.456	129.869	50.000
21.786	129.408	50.000
22.117	128.923	50.000
22.447	128.415	50.000
22.777	127.881	50.000
23.107	127.321	50.000
23.437	126.734	50.000
23.767	126.119	50.000
24.097	125.476	50.000
24.427	124.804	50.000
24.757	124.101	50.000
25.087	123.366	50.000
25.418	122.599	50.000
25.748	121.799	50.000
26.078	120.964	50.000
26.408	120.095	50.000
26.738	119.188	50.000
27.068	118.244	50.000
27.398	117.262	50.000
27.728	116.240	50.000
28.058	115.178	50.000
28.388	114.074	50.000
28.719	112.927	50.000
29.049	111.735	50.000
29.379	110.499	50.000
29.709	109.216	50.000
30.039	107.886	50.000
30.369	106.507	50.000
30.699	105.077	50.000
31.029	103.597	50.000
31.359	102.064	50.000
31.689	100.477	50.000
32.020	98.835	50.000
32.350	97.137	50.000
32.680	95.381	50.000
0.000	110.727	45.000
0.297	110.727	45.000
0.594	110.727	45.000
0.891	110.727	45.000
1.188	110.727	45.000
1.485	110.727	45.000
1.783	110.726	45.000
2.080	110.726	45.000
2.377	110.726	45.000
2.674	110.725	45.000
2.971	110.725	45.000
3.268	110.724	45.000
3.565	110.723	45.000
3.862	110.721	45.000
4.159	110.719	45.000
4.456	110.716	45.000
4.753	110.713	45.000
5.051	110.709	45.000
5.348	110.704	45.000
5.645	110.698	45.000
5.942	110.691	45.000
6.239	110.683	45.000
6.536	110.673	45.000
6.833	110.662	45.000
7.130	110.649	45.000
7.427	110.634	45.000
7.724	110.617	45.000
8.021	110.598	45.000
8.318	110.576	45.000
8.616	110.551	45.000
8.913	110.524	45.000
9.210	110.494	45.000
9.507	110.460	45.000
9.804	110.422	45.000
10.101	110.381	45.000
10.398	110.335	45.000
10.695	110.285	45.000
10.992	110.230	45.000
11.289	110.170	45.000
11.586	110.105	45.000
11.884	110.033	45.000
12.181	109.956	45.000
12.478	109.872	45.000
12.775	109.782	45.000
13.072	109.684	45.000
13.369	109.579	45.000
13.666	109.466	45.000
13.963	109.345	45.000
14.260	109.214	45.000
14.557	109.075	45.000
14.854	108.926	45.000
15.152	108.766	45.000
15.449	108.597	45.000
15.746	108.416	45.000
16.043	108.223	45.000
16.340	108.019	45.000
16.637	107.802	45.000
16.934	107.572	45.000
17.231	107.328	45.000
17.528	107.071	45.000
17.825	106.798	45.000
18.122	106.510	45.000
18.419	106.206	45.000
18.717	105.886	45.000
19.014	105.549	45.000
19.311	105.194	45.000
19.608	104.820	45.000
19.905	104.428	45.000
20.202	104.016	45.000
20.499	103.583	45.000
20.796	103.130	45.000
21.093	102.654	45.000
21.390	102.157	45.000
21.687	101.636	45.000
21.985	101.091	45.000
22.282	100.522	45.000
22.579	99.927	45.000
22.876	99.305	45.000
23.173	98.657	45.000
23.470	97.981	45.000
23.767	97.277	45.000
24.064	96.542	45.000
24.361	95.778	45.000
24.658	94.982	45.000
24.955	94.155	45.000
25.253	93.294	45.000
25.550	92.400	45.000
25.847	91.470	45.000
26.144	90.506	45.000
26.441	89.504	45.000
26.738	88.465	45.000
27.035	87.387	45.000
27.332	86.270	45.000
27.629	85.113	45.000
27.926	83.914	45.000
28.223	82.672	45.000
28.520	81.386	45.000
28.818	80.057	45.000
29.115	78.681	45.000
29.412	77.258	45.000
0.000	87.488	40.000
0.264	87.488	40.000
0.528	87.488	40.000
0.792	87.488	40.000
1.056	87.488	40.000
1.320	87.488	40.000
1.584	87.488	40.000
1.849	87.487	40.000
2.113	87.487	40.000
2.377	87.487	40.000
2.641	87.486	40.000
2.905	87.486	40.000
3.169	87.485	40.000
3.433	87.483	40.000
3.697	87.482	40.000
3.961	87.479	40.000
4.225	87.477	40.000
4.489	87.474	40.000
4.753	87.470	40.000
5.017	87.465	40.000
5.282	87.459	40.000
5.546	87.453	40.000
5.810	87.445	40.000
6.074	87.436	40.000
6.338	87.426	40.000
6.602	87.414	40.000
6.866	87.401	40.000
7.130	87.386	40.000
7.394	87.369	40.000
7.658	87.349	40.000
7.922	87.328	40.000
8.186	87.304	40.000
8.451	87.277	40.000
8.715	87.247	40.000
8.979	87.214	40.000
9.243	87.178	40.000
9.507	87.139	40.000
9.771	87.095	40.000
10.035	87.048	40.000
10.299	86.996	40.000
10.563	86.940	40.000
10.827	86.879	40.000
11.091	86.813	40.000
11.355	86.741	40.000
11.619	86.664	40.000
11.884	86.581	40.000
12.148	86.492	40.000
12.412	86.396	40.000
12.676	86.293	40.000
12.940	86.183	40.000
13.204	86.065	40.000
13.468	85.939	40.000
13.732	85.805	40.000
13.996	85.662	40.000
14.260	85.510	40.000
14.524	85.348	40.000
14.788	85.177	40.000
15.052	84.995	40.000
15.317	84.803	40.000
15.581	84.599	40.000
15.845	84.384	40.000
16.109	84.156	40.000
16.373	83.916	40.000
16.637	83.663	40.000
16.901	83.397	40.000
17.165	83.116	40.000
17.429	82.821	40.000
17.693	82.511	40.000
17.957	82.185	40.000
18.221	81.844	40.000
18.486	81.485	40.000
18.750	81.110	40.000
19.014	80.716	40.000
19.278	80.305	40.000
19.542	79.874	40.000
19.806	79.424	40.000
20.070	78.954	40.000
20.334	78.464	40.000
20.598	77.951	40.000
20.862	77.417	40.000
21.126	76.860	40.000
21.390	76.280	40.000
21.654	75.676	40.000
21.919	75.048	40.000
22.183	74.394	40.000
22.447	73.714	40.000
22.711	73.007	40.000
22.975	72.273	40.000
23.239	71.511	40.000
23.503	70.719	40.000
23.767	69.898	40.000
24.031	69.047	40.000
24.295	68.164	40.000
24.559	67.250	40.000
24.823	66.302	40.000
25.087	65.321	40.000
25.352	64.305	40.000
25.616	63.255	40.000
25.880	62.168	40.000
26.144	61.044	40.000
0.000	66.983	35.000
0.231	66.983	35.000
0.462	66.983	35.000
0.693	66.983	35.000
0.924	66.983	35.000
1.155	66.983	35.000
1.386	66.983	35.000
1.617	66.983	35.000
1.849	66.982	35.000
2.080	66.982	35.000
2.311	66.982	35.000
2.542	66.981	35.000
2.773	66.980	35.000
3.004	66.979	35.000
3.235	66.978	35.000
3.466	66.976	35.000
3.697	66.974	35.000
3.928	66.972	35.000
4.159	66.969	35.000
4.390	66.965	35.000
4.621	66.961	35.000
4.852	66.956	35.000
5.084	66.950	35.000
5.315	66.943	35.000
5.546	66.936	35.000
5.777	66.927	35.000
6.008	66.916	35.000
6.239	66.905	35.000
6.470	66.892	35.000
6.701	66.877	35.000
6.932	66.860	35.000
7.163	66.842	35.000
7.394	66.821	35.000
7.625	66.799	35.000
7.856	66.774	35.000
8.087	66.746	35.000
8.318	66.716	35.000
8.550	66.682	35.000
8.781	66.646	35.000
9.012	66.606	35.000
9.243	66.563	35.000
9.474	66.517	35.000
9.705	66.466	35.000
9.936	66.411	35.000
10.167	66.352	35.000
10.398	66.289	35.000
10.629	66.220	35.000
10.860	66.147	35.000
11.091	66.068	35.000
11.322	65.984	35.000
11.553	65.893	35.000
11.785	65.797	35.000
12.016	65.694	35.000
12.247	65.585	35.000
12.478	65.469	35.000
12.709	65.345	35.000
12.940	65.214	35.000
13.171	65.074	35.000
13.402	64.927	35.000
13.633	64.771	35.000
13.864	64.606	35.000
14.095	64.432	35.000
14.326	64.248	35.000
14.557	64.055	35.000
14.788	63.851	35.000
15.019	63.636	35.000
15.251	63.410	35.000
15.482	63.172	35.000
15.713	62.923	35.000
15.944	62.661	35.000
16.175	62.387	35.000
16.406	62.100	35.000
16.637	61.799	35.000
16.868	61.483	35.000
17.099	61.154	35.000
17.330	60.809	35.000
17.561	60.449	35.000
17.792	60.074	35.000
18.023	59.682	35.000
18.254	59.273	35.000
18.486	58.846	35.000
18.717	58.402	35.000
18.948	57.940	35.000
19.179	57.458	35.000
19.410	56.958	35.000
19.641	56.437	35.000
19.872	55.896	35.000
20.103	55.334	35.000
20.334	54.750	35.000
20.565	54.144	35.000
20.796	53.516	35.000
21.027	52.864	35.000
21.258	52.188	35.000
21.489	51.488	35.000
21.720	50.763	35.000
21.952	50.011	35.000
22.183	49.234	35.000
22.414	48.429	35.000
22.645	47.597	35.000
22.876	46.737	35.000
0.000	49.212	30.000
0.198	49.212	30.000
0.396	49.212	30.000
0.594	49.212	30.000
0.792	49.212	30.000
0.990	49.212	30.000
1.188	49.212	30.000
1.386	49.212	30.000
1.584	49.212	30.000
1.783	49.211	30.000
1.981	49.211	30.000
2.179	49.211	30.000
2.377	49.210	30.000
2.575	49.209	30.000
2.773	49.208	30.000
2.971	49.207	30.000
3.169	49.206	30.000
3.367	49.204	30.000
3.565	49.202	30.000
3.763	49.199	30.000
3.961	49.196	30.000
4.159	49.192	30.000
4.357	49.188	30.000
4.555	49.183	30.000
4.753	49.177	30.000
4.951	49.171	30.000
5.150	49.163	30.000
5.348	49.154	30.000
5.546	49.145	30.000
5.744	49.134	30.000
5.942	49.122	30.000
6.140	49.108	30.000
6.338	49.093	30.000
6.536	49.077	30.000
6.734	49.058	30.000
6.932	49.038	30.000
7.130	49.016	30.000
7.328	48.991	30.000
7.526	48.964	30.000
7.724	48.935	30.000
7.922	48.904	30.000
8.120	48.869	30.000
8.318	48.832	30.000
8.517	48.792	30.000
8.715	48.749	30.000
8.913	48.702	30.000
9.111	48.652	30.000
9.309	48.598	30.000
9.507	48.540	30.000
9.705	48.478	30.000
9.903	48.411	30.000
10.101	48.341	30.000
10.299	48.265	30.000
10.497	48.185	30.000
10.695	48.099	30.000
10.893	48.008	30.000
11.091	47.912	30.000
11.289	47.810	30.000
11.487	47.702	30.000
11.685	47.587	30.000
11.884	47.466	30.000
12.082	47.338	30.000
12.280	47.203	30.000
12.478	47.061	30.000
12.676	46.911	30.000
12.874	46.753	30.000
13.072	46.587	30.000
13.270	46.412	30.000
13.468	46.229	30.000
13.666	46.037	30.000
13.864	45.835	30.000
14.062	45.624	30.000
14.260	45.403	30.000
14.458	45.171	30.000
14.656	44.929	30.000
14.854	44.676	30.000
15.052	44.412	30.000
15.251	44.136	30.000
15.449	43.848	30.000
15.647	43.547	30.000
15.845	43.234	30.000
16.043	42.908	30.000
16.241	42.568	30.000
16.439	42.214	30.000
16.637	41.847	30.000
16.835	41.464	30.000
17.033	41.067	30.000
17.231	40.654	30.000
17.429	40.225	30.000
17.627	39.780	30.000
17.825	39.318	30.000
18.023	38.839	30.000
18.221	38.342	30.000
18.419	37.828	30.000
18.618	37.295	30.000
18.816	36.743	30.000
19.014	36.172	30.000
19.212	35.581	30.000
19.410	34.969	30.000
19.608	34.337	30.000
